 Al Density=2.6989 Thickness=0.2 microns
 Wavelength (nm), Transmission
   0.41000      0.95961    
   0.42918      0.95438    
   0.44836      0.94879    
   0.46754      0.94285    
   0.48672      0.93657    
   0.50590      0.92995    
   0.52508      0.92301    
   0.54426      0.91575    
   0.56344      0.90818    
   0.58262      0.90032    
   0.60180      0.89218    
   0.62098      0.88392    
   0.64016      0.87541    
   0.65934      0.86659    
   0.67852      0.85748    
   0.69770      0.84808    
   0.71688      0.83853    
   0.73606      0.82904    
   0.75524      0.81936    
   0.77442      0.80946    
   0.79360      0.79933    
   0.81278      0.98001    
   0.83196      0.97863    
   0.85114      0.97726    
   0.87032      0.97587    
   0.88950      0.97442    
   0.90868      0.97293    
   0.92786      0.97138    
   0.94704      0.96978    
   0.96622      0.96813    
   0.98540      0.96641    
    1.0046      0.96462    
    1.0238      0.96276    
    1.0429      0.96084    
    1.0621      0.95886    
    1.0813      0.95683    
    1.1005      0.95473    
    1.1197      0.95257    
    1.1388      0.95035    
    1.1580      0.94807    
    1.1772      0.94572    
    1.1964      0.94336    
    1.2156      0.94098    
    1.2347      0.93850    
    1.2539      0.93594    
    1.2731      0.93330    
    1.2923      0.93061    
    1.3115      0.92785    
    1.3306      0.92503    
    1.3498      0.92215    
    1.3690      0.91921    
    1.3882      0.91621    
    1.4074      0.91315    
    1.4265      0.91002    
    1.4457      0.90684    
    1.4649      0.90359    
    1.4841      0.90029    
    1.5033      0.89692    
    1.5224      0.89349    
    1.5416      0.89000    
    1.5608      0.88645    
    1.5800      0.88284    
    1.5992      0.87919    
    1.6183      0.87550    
    1.6375      0.87176    
    1.6567      0.86796    
    1.6759      0.86411    
    1.6951      0.86020    
    1.7142      0.85623    
    1.7334      0.85221    
    1.7526      0.84822    
    1.7718      0.84428    
    1.7910      0.84040    
    1.8101      0.83643    
    1.8293      0.83234    
    1.8485      0.82804    
    1.8677      0.82347    
    1.8869      0.81877    
    1.9060      0.81401    
    1.9252      0.80925    
    1.9444      0.80446    
    1.9636      0.79975    
    1.9828      0.79502    
    2.0019      0.79030    
    2.0211      0.78553    
    2.0403      0.78072    
    2.0595      0.77587    
    2.0787      0.77097    
    2.0978      0.76603    
    2.1170      0.76105    
    2.1362      0.75603    
    2.1554      0.75098    
    2.1746      0.74589    
    2.1937      0.74082    
    2.2129      0.73573    
    2.2321      0.73065    
    2.2513      0.72557    
    2.2705      0.72052    
    2.2896      0.71545    
    2.3088      0.71034    
    2.3280      0.70521    
    2.3472      0.70003    
    2.3664      0.69482    
    2.3855      0.68958    
    2.4047      0.68430    
    2.4239      0.67899    
    2.4431      0.67368    
    2.4623      0.66836    
    2.4814      0.66305    
    2.5006      0.65777    
    2.5198      0.65249    
    2.5390      0.64722    
    2.5582      0.64194    
    2.5773      0.63665    
    2.5965      0.63135    
    2.6157      0.62604    
    2.6349      0.62071    
    2.6541      0.61537    
    2.6732      0.61002    
    2.6924      0.60466    
    2.7116      0.59930    
    2.7308      0.59392    
    2.7500      0.58854    
    2.7691      0.58315    
    2.7883      0.57776    
    2.8075      0.57235    
    2.8267      0.56706    
    2.8459      0.56179    
    2.8650      0.55666    
    2.8842      0.55170    
    2.9034      0.54675    
    2.9226      0.54180    
    2.9418      0.53686    
    2.9609      0.53192    
    2.9801      0.52699    
    2.9993      0.52206    
    3.0185      0.51714    
    3.0377      0.51222    
    3.0568      0.50731    
    3.0760      0.50242    
    3.0952      0.49753    
    3.1144      0.49265    
    3.1336      0.48778    
    3.1527      0.48292    
    3.1719      0.47807    
    3.1911      0.47323    
    3.2103      0.46841    
    3.2295      0.46360    
    3.2486      0.45880    
    3.2678      0.45402    
    3.2870      0.44925    
    3.3062      0.44450    
    3.3254      0.43976    
    3.3445      0.43504    
    3.3637      0.43033    
    3.3829      0.42565    
    3.4021      0.42098    
    3.4213      0.41624    
    3.4404      0.41148    
    3.4596      0.40675    
    3.4788      0.40172    
    3.4980      0.39664    
    3.5172      0.39158    
    3.5363      0.38655    
    3.5555      0.38154    
    3.5747      0.37655    
    3.5939      0.37159    
    3.6131      0.36666    
    3.6322      0.36175    
    3.6514      0.35687    
    3.6706      0.35201    
    3.6898      0.34719    
    3.7090      0.34239    
    3.7281      0.33762    
    3.7473      0.33288    
    3.7665      0.32818    
    3.7857      0.32350    
    3.8049      0.31885    
    3.8240      0.31424    
    3.8432      0.30966    
    3.8624      0.30511    
    3.8816      0.30059    
    3.9008      0.29611    
    3.9199      0.29166    
    3.9391      0.28725    
    3.9583      0.28287    
    3.9775      0.27852    
    3.9967      0.27422    
    4.0158      0.26994    
    4.0350      0.26571    
    4.0542      0.26151    
    4.0734      0.25734    
    4.0926      0.25322    
    4.1117      0.24913    
    4.1309      0.24508    
    4.1501      0.24106    
    4.1693      0.23709    
    4.1885      0.23315    
    4.2076      0.22925    
    4.2268      0.22539    
    4.2460      0.22157    
    4.2652      0.21779    
    4.2844      0.21405    
    4.3035      0.21034    
    4.3227      0.20668    
    4.3419      0.20306    
    4.3611      0.19947    
    4.3803      0.19593    
    4.3994      0.19242    
    4.4186      0.18896    
    4.4378      0.18554    
    4.4570      0.18215    
    4.4762      0.17881    
    4.4953      0.17551    
    4.5145      0.17224    
    4.5337      0.16902    
    4.5529      0.16583    
    4.5721      0.16269    
    4.5912      0.15959    
    4.6104      0.15652    
    4.6296      0.15370    
    4.6488      0.15127    
    4.6680      0.14887    
    4.6871      0.14650    
    4.7063      0.14421    
    4.7255      0.14201    
    4.7447      0.13984    
    4.7639      0.13769    
    4.7830      0.13557    
    4.8022      0.13348    
    4.8214      0.13141    
    4.8406      0.12936    
    4.8598      0.12734    
    4.8789      0.12534    
    4.8981      0.12336    
    4.9173      0.12142    
    4.9365      0.11949    
    4.9557      0.11759    
    4.9748      0.11571    
    4.9940      0.11385    
    5.0132      0.11202    
    5.0324      0.11021    
    5.0516      0.10842    
    5.0707      0.10666    
    5.0899      0.10492    
    5.1091      0.10320    
    5.1283      0.10150    
    5.1475      0.99829E-01
    5.1666      0.98176E-01
    5.1858      0.96546E-01
    5.2050      0.94936E-01
    5.2242      0.93348E-01
    5.2434      0.91782E-01
    5.2625      0.90236E-01
    5.2817      0.88711E-01
    5.3009      0.87207E-01
    5.3201      0.85723E-01
    5.3393      0.84260E-01
    5.3584      0.82816E-01
    5.3776      0.81393E-01
    5.3968      0.79990E-01
    5.4160      0.78606E-01
    5.4352      0.77242E-01
    5.4543      0.75897E-01
    5.4735      0.74571E-01
    5.4927      0.73263E-01
    5.5119      0.71975E-01
    5.5311      0.70576E-01
    5.5502      0.69174E-01
    5.5694      0.67794E-01
    5.5886      0.66437E-01
    5.6078      0.65090E-01
    5.6270      0.63720E-01
    5.6461      0.62373E-01
    5.6653      0.61049E-01
    5.6845      0.59748E-01
    5.7037      0.58468E-01
    5.7229      0.57211E-01
    5.7420      0.55976E-01
    5.7612      0.54762E-01
    5.7804      0.53570E-01
    5.7996      0.52399E-01
    5.8188      0.51249E-01
    5.8379      0.50119E-01
    5.8571      0.49010E-01
    5.8763      0.47920E-01
    5.8955      0.46851E-01
    5.9147      0.45801E-01
    5.9338      0.44770E-01
    5.9530      0.43758E-01
    5.9722      0.42765E-01
    5.9914      0.41791E-01
    6.0106      0.40835E-01
    6.0297      0.39898E-01
    6.0489      0.38978E-01
    6.0681      0.38076E-01
    6.0873      0.37191E-01
    6.1065      0.36324E-01
    6.1256      0.35473E-01
    6.1448      0.34639E-01
    6.1640      0.33821E-01
    6.1832      0.33027E-01
    6.2024      0.32251E-01
    6.2215      0.31492E-01
    6.2407      0.30747E-01
    6.2599      0.30017E-01
    6.2791      0.29302E-01
    6.2983      0.28601E-01
    6.3174      0.27914E-01
    6.3366      0.27242E-01
    6.3558      0.26583E-01
    6.3750      0.25937E-01
    6.3942      0.25305E-01
    6.4133      0.24687E-01
    6.4325      0.24081E-01
    6.4517      0.23488E-01
    6.4709      0.22907E-01
    6.4901      0.22339E-01
    6.5092      0.21782E-01
    6.5284      0.21238E-01
    6.5476      0.20705E-01
    6.5668      0.20184E-01
    6.5860      0.19674E-01
    6.6051      0.19175E-01
    6.6243      0.18687E-01
    6.6435      0.18210E-01
    6.6627      0.17744E-01
    6.6819      0.17287E-01
    6.7010      0.16841E-01
    6.7202      0.16405E-01
    6.7394      0.15979E-01
    6.7586      0.15562E-01
    6.7778      0.15155E-01
    6.7969      0.14757E-01
    6.8161      0.14368E-01
    6.8353      0.13988E-01
    6.8545      0.13617E-01
    6.8737      0.13255E-01
    6.8928      0.12900E-01
    6.9120      0.12602E-01
    6.9312      0.12375E-01
    6.9504      0.12151E-01
    6.9696      0.11931E-01
    6.9887      0.11715E-01
    7.0079      0.11502E-01
    7.0271      0.11321E-01
    7.0463      0.11160E-01
    7.0655      0.11001E-01
    7.0846      0.10844E-01
    7.1038      0.10690E-01
    7.1230      0.10538E-01
    7.1422      0.10388E-01
    7.1614      0.10240E-01
    7.1805      0.10094E-01
    7.1997      0.99498E-02
    7.2189      0.98079E-02
    7.2381      0.96679E-02
    7.2573      0.95298E-02
    7.2764      0.93936E-02
    7.2956      0.92593E-02
    7.3148      0.91269E-02
    7.3340      0.89963E-02
    7.3532      0.88676E-02
    7.3723      0.87406E-02
    7.3915      0.86153E-02
    7.4107      0.84918E-02
    7.4299      0.83701E-02
    7.4491      0.82500E-02
    7.4682      0.81316E-02
    7.4874      0.80148E-02
    7.5066      0.78997E-02
    7.5258      0.77862E-02
    7.5450      0.76742E-02
    7.5641      0.75639E-02
    7.5833      0.74550E-02
    7.6025      0.73477E-02
    7.6217      0.72419E-02
    7.6409      0.71376E-02
    7.6600      0.70347E-02
    7.6792      0.69333E-02
    7.6984      0.68332E-02
    7.7176      0.67346E-02
    7.7368      0.66374E-02
    7.7559      0.65415E-02
    7.7751      0.64470E-02
    7.7943      0.63538E-02
    7.8135      0.62619E-02
    7.8327      0.61713E-02
    7.8518      0.60820E-02
    7.8710      0.59939E-02
    7.8902      0.59071E-02
    7.9094      0.58215E-02
    7.9286      0.57371E-02
    7.9477      0.56538E-02
    7.9669      0.55718E-02
    7.9861      0.54909E-02
    8.0053      0.54112E-02
    8.0245      0.53326E-02
    8.0436      0.52551E-02
    8.0628      0.51787E-02
    8.0820      0.51034E-02
    8.1012      0.50291E-02
    8.1204      0.49563E-02
    8.1395      0.48846E-02
    8.1587      0.48139E-02
    8.1779      0.47442E-02
    8.1971      0.46754E-02
    8.2163      0.46077E-02
    8.2354      0.45409E-02
    8.2546      0.44884E-02
    8.2738      0.44373E-02
    8.2930      0.43869E-02
    8.3122      0.43370E-02
    8.3313      0.42877E-02
    8.3505      0.42389E-02
    8.3697      0.41908E-02
    8.3889      0.41432E-02
    8.4081      0.40961E-02
    8.4272      0.40496E-02
    8.4464      0.40036E-02
    8.4656      0.39582E-02
    8.4848      0.39133E-02
    8.5040      0.38688E-02
    8.5231      0.38250E-02
    8.5423      0.37816E-02
    8.5615      0.37387E-02
    8.5807      0.36963E-02
    8.5999      0.36544E-02
    8.6190      0.36130E-02
    8.6382      0.35720E-02
    8.6574      0.35316E-02
    8.6766      0.34916E-02
    8.6958      0.34520E-02
    8.7149      0.34129E-02
    8.7341      0.33743E-02
    8.7533      0.33361E-02
    8.7725      0.32983E-02
    8.7917      0.32610E-02
    8.8108      0.32241E-02
    8.8300      0.31877E-02
    8.8492      0.31516E-02
    8.8684      0.31160E-02
    8.8876      0.30808E-02
    8.9067      0.30460E-02
    8.9259      0.30116E-02
    8.9451      0.29775E-02
    8.9643      0.29439E-02
    8.9835      0.29107E-02
    9.0026      0.28778E-02
    9.0218      0.28453E-02
    9.0410      0.28132E-02
    9.0602      0.27815E-02
    9.0794      0.27501E-02
    9.0985      0.27191E-02
    9.1177      0.26884E-02
    9.1369      0.26581E-02
    9.1561      0.26281E-02
    9.1753      0.25985E-02
    9.1944      0.25692E-02
    9.2136      0.25403E-02
    9.2328      0.25117E-02
    9.2520      0.24834E-02
    9.2712      0.24554E-02
    9.2903      0.24278E-02
    9.3095      0.24004E-02
    9.3287      0.23734E-02
    9.3479      0.23467E-02
    9.3671      0.23203E-02
    9.3862      0.22942E-02
    9.4054      0.22684E-02
    9.4246      0.22429E-02
    9.4438      0.22177E-02
    9.4630      0.21928E-02
    9.4821      0.21681E-02
    9.5013      0.21438E-02
    9.5205      0.21197E-02
    9.5397      0.20959E-02
    9.5589      0.20723E-02
    9.5780      0.20491E-02
    9.5972      0.20261E-02
    9.6164      0.20033E-02
    9.6356      0.19808E-02
    9.6548      0.19586E-02
    9.6739      0.19366E-02
    9.6931      0.19149E-02
    9.7123      0.18934E-02
    9.7315      0.18722E-02
    9.7507      0.18512E-02
    9.7698      0.18305E-02
    9.7890      0.18100E-02
    9.8082      0.17897E-02
    9.8274      0.17699E-02
    9.8466      0.17563E-02
    9.8657      0.17428E-02
    9.8849      0.17295E-02
    9.9041      0.17162E-02
    9.9233      0.17031E-02
    9.9425      0.16900E-02
    9.9616      0.16771E-02
    9.9808      0.16643E-02
    10.000      0.16676E-02
10.020      0.16764E-02
    10.040      0.16851E-02
    10.060      0.16940E-02
    10.080      0.17028E-02
    10.100      0.17116E-02
    10.120      0.17205E-02
    10.140      0.17294E-02
    10.160      0.17383E-02
    10.180      0.17472E-02
    10.200      0.17562E-02
    10.220      0.17652E-02
    10.240      0.17742E-02
    10.260      0.17832E-02
    10.280      0.17922E-02
    10.300      0.18013E-02
    10.320      0.18103E-02
    10.340      0.18194E-02
    10.360      0.18286E-02
    10.380      0.18377E-02
    10.400      0.18469E-02
    10.420      0.18560E-02
    10.440      0.18652E-02
    10.460      0.18745E-02
    10.480      0.18837E-02
    10.500      0.18930E-02
    10.520      0.19023E-02
    10.540      0.19116E-02
    10.560      0.19209E-02
    10.580      0.19303E-02
    10.600      0.19397E-02
    10.620      0.19491E-02
    10.640      0.19585E-02
    10.660      0.19679E-02
    10.680      0.19773E-02
    10.700      0.19868E-02
    10.720      0.19963E-02
    10.740      0.20058E-02
    10.760      0.20153E-02
    10.780      0.20248E-02
    10.800      0.20344E-02
    10.820      0.20440E-02
    10.840      0.20536E-02
    10.860      0.20632E-02
    10.880      0.20729E-02
    10.900      0.20825E-02
    10.920      0.20922E-02
    10.940      0.21019E-02
    10.960      0.21117E-02
    10.980      0.21214E-02
    11.000      0.21312E-02
    11.020      0.21410E-02
    11.040      0.21508E-02
    11.060      0.21606E-02
    11.080      0.21704E-02
    11.100      0.21803E-02
    11.120      0.21902E-02
    11.140      0.22001E-02
    11.160      0.22100E-02
    11.180      0.22200E-02
    11.200      0.22299E-02
    11.220      0.22399E-02
    11.240      0.22500E-02
    11.260      0.22600E-02
    11.280      0.22700E-02
    11.300      0.22801E-02
    11.320      0.22902E-02
    11.340      0.23003E-02
    11.360      0.23104E-02
    11.380      0.23206E-02
    11.400      0.23308E-02
    11.420      0.23409E-02
    11.440      0.23511E-02
    11.460      0.23614E-02
    11.480      0.23716E-02
    11.500      0.23819E-02
    11.520      0.23921E-02
    11.540      0.24024E-02
    11.560      0.24127E-02
    11.580      0.24231E-02
    11.600      0.24334E-02
    11.620      0.24438E-02
    11.640      0.24542E-02
    11.660      0.24646E-02
    11.680      0.24750E-02
    11.700      0.24854E-02
    11.720      0.24959E-02
    11.740      0.25063E-02
    11.760      0.25169E-02
    11.780      0.25274E-02
    11.800      0.25379E-02
    11.820      0.25485E-02
    11.840      0.25591E-02
    11.860      0.25697E-02
    11.880      0.25803E-02
    11.900      0.25909E-02
    11.920      0.26029E-02
    11.940      0.26173E-02
    11.960      0.26317E-02
    11.980      0.26461E-02
    12.000      0.26606E-02
    12.020      0.26751E-02
    12.040      0.26897E-02
    12.060      0.27043E-02
    12.080      0.27190E-02
    12.100      0.27337E-02
    12.120      0.27495E-02
    12.140      0.27658E-02
    12.160      0.27822E-02
    12.180      0.27986E-02
    12.200      0.28151E-02
    12.220      0.28317E-02
    12.240      0.28483E-02
    12.260      0.28649E-02
    12.280      0.28816E-02
    12.300      0.28984E-02
    12.320      0.29152E-02
    12.340      0.29320E-02
    12.360      0.29489E-02
    12.380      0.29659E-02
    12.400      0.29829E-02
    12.420      0.30000E-02
    12.440      0.30171E-02
    12.460      0.30342E-02
    12.480      0.30515E-02
    12.500      0.30687E-02
    12.520      0.30861E-02
    12.540      0.31035E-02
    12.560      0.31209E-02
    12.580      0.31384E-02
    12.600      0.31559E-02
    12.620      0.31735E-02
    12.640      0.31912E-02
    12.660      0.32089E-02
    12.680      0.32267E-02
    12.700      0.32445E-02
    12.720      0.32623E-02
    12.740      0.32802E-02
    12.760      0.32982E-02
    12.780      0.33162E-02
    12.800      0.33343E-02
    12.820      0.33524E-02
    12.840      0.33706E-02
    12.860      0.33888E-02
    12.880      0.34071E-02
    12.900      0.34254E-02
    12.920      0.34438E-02
    12.940      0.34622E-02
    12.960      0.34807E-02
    12.980      0.34993E-02
    13.000      0.35179E-02
    13.020      0.35365E-02
    13.040      0.35552E-02
    13.060      0.35740E-02
    13.080      0.35928E-02
    13.100      0.36116E-02
    13.120      0.36305E-02
    13.140      0.36495E-02
    13.160      0.36685E-02
    13.180      0.36876E-02
    13.200      0.37067E-02
    13.220      0.37259E-02
    13.240      0.37451E-02
    13.260      0.37644E-02
    13.280      0.37837E-02
    13.300      0.38031E-02
    13.320      0.38225E-02
    13.340      0.38420E-02
    13.360      0.38615E-02
    13.380      0.38811E-02
    13.400      0.39008E-02
    13.420      0.39205E-02
    13.440      0.39402E-02
    13.460      0.39600E-02
    13.480      0.39799E-02
    13.500      0.39998E-02
    13.520      0.40197E-02
    13.540      0.40397E-02
    13.560      0.40598E-02
    13.580      0.40799E-02
    13.600      0.41001E-02
    13.620      0.41203E-02
    13.640      0.41405E-02
    13.660      0.41608E-02
    13.680      0.41812E-02
    13.700      0.42016E-02
    13.720      0.42221E-02
