Si3N4 Density=3.44 Alpha=0.5 Thickness=50.nm
 Wavelength (nm), Efficiency
   0.410000  3.751535E-04
   0.429218  4.092898E-04
   0.448437  4.442194E-04
   0.467655  4.797294E-04
   0.486874  5.155294E-04
   0.506092  5.513395E-04
   0.525311  5.867120E-04
   0.544529  6.210761E-04
   0.563748  6.537549E-04
   0.582966  6.836204E-04
   0.602184  7.089277E-04
   0.621403  7.267621E-04
   0.640621  7.302284E-04
   0.659840  6.923438E-04
   0.679058  4.685186E-04
   0.698277  7.754252E-04
   0.717495  8.699289E-04
   0.736713  9.480969E-04
   0.755932  1.021571E-03
   0.775150  1.092865E-03
   0.794369  1.163350E-03
   0.813587  1.233968E-03
   0.832806  1.304940E-03
   0.852024  1.376782E-03
   0.871243  1.449673E-03
   0.890461  1.523679E-03
   0.909679  1.598968E-03
   0.928898  1.675539E-03
   0.948116  1.753430E-03
   0.967335  1.832671E-03
   0.986553  1.913279E-03
   1.00577  1.995330E-03
   1.02499  2.078895E-03
   1.04421  2.164022E-03
   1.06343  2.250710E-03
   1.08265  2.338991E-03
   1.10186  2.428865E-03
   1.12108  2.520426E-03
   1.14030  2.613938E-03
   1.15952  2.708692E-03
   1.17874  2.804579E-03
   1.19796  2.901631E-03
   1.21717  3.000111E-03
   1.23639  3.099980E-03
   1.25561  3.201121E-03
   1.27483  3.303511E-03
   1.29405  3.407097E-03
   1.31327  3.511827E-03
   1.33248  3.617548E-03
   1.35170  3.724186E-03
   1.37092  3.831639E-03
   1.39014  3.940082E-03
   1.40936  4.050014E-03
   1.42858  4.161459E-03
   1.44780  4.274171E-03
   1.46701  4.388052E-03
   1.48623  4.502950E-03
   1.50545  4.618749E-03
   1.52467  4.735265E-03
   1.54389  4.852152E-03
   1.56311  4.969323E-03
   1.58232  5.087308E-03
   1.60154  5.206318E-03
   1.62076  5.326197E-03
   1.63998  5.447258E-03
   1.65920  5.569528E-03
   1.67842  5.692962E-03
   1.69764  5.817384E-03
   1.71685  5.942794E-03
   1.73607  6.069183E-03
   1.75529  6.196487E-03
   1.77451  6.325199E-03
   1.79373  6.454966E-03
   1.81295  6.584920E-03
   1.83216  6.714811E-03
   1.85138  6.844996E-03
   1.87060  6.975077E-03
   1.88982  7.105546E-03
   1.90904  7.236256E-03
   1.92826  7.366645E-03
   1.94747  7.497425E-03
   1.96669  7.627884E-03
   1.98591  7.758081E-03
   2.00513  7.888425E-03
   2.02435  8.017702E-03
   2.04357  8.147020E-03
   2.06279  8.275296E-03
   2.08200  8.402507E-03
   2.10122  8.529141E-03
   2.12044  8.653473E-03
   2.13966  8.777903E-03
   2.15888  8.898851E-03
   2.17810  9.019780E-03
   2.19731  9.137791E-03
   2.21653  9.255854E-03
   2.23575  9.373485E-03
   2.25497  9.490868E-03
   2.27419  9.608060E-03
   2.29341  9.724078E-03
   2.31263  9.839604E-03
   2.33184  9.953195E-03
   2.35106  1.006629E-02
   2.37028  1.017677E-02
   2.38950  1.028671E-02
   2.40872  1.039343E-02
   2.42794  1.049947E-02
   2.44715  1.060179E-02
   2.46637  1.070317E-02
   2.48559  1.080031E-02
   2.50481  1.089592E-02
   2.52403  1.098711E-02
   2.54325  1.107580E-02
   2.56246  1.116021E-02
   2.58168  1.124053E-02
   2.60090  1.131702E-02
   2.62012  1.138680E-02
   2.63934  1.145412E-02
   2.65856  1.151045E-02
   2.67778  1.156663E-02
   2.69699  1.160760E-02
   2.71621  1.164776E-02
   2.73543  1.167468E-02
   2.75465  1.169545E-02
   2.77387  1.170576E-02
   2.79309  1.169980E-02
   2.81230  1.169161E-02
   2.83152  1.164682E-02
   2.85074  1.160266E-02
   2.86996  1.151497E-02
   2.88918  1.140956E-02
   2.90840  1.127026E-02
   2.92762  1.104906E-02
   2.94683  1.083223E-02
   2.96605  1.032271E-02
   2.98527  9.783034E-03
   3.00449  8.123606E-03
   3.02371  5.281791E-03
   3.04293  6.774298E-03
   3.06214  8.243082E-03
   3.08136  9.107416E-03
   3.10058  9.884674E-03
   3.11980  1.034156E-02
   3.13902  1.081004E-02
   3.15824  1.119534E-02
   3.17745  1.154260E-02
   3.19667  1.189328E-02
   3.21589  1.218294E-02
   3.23511  1.247654E-02
   3.25433  1.275890E-02
   3.27355  1.301737E-02
   3.29277  1.327872E-02
   3.31198  1.352189E-02
   3.33120  1.375678E-02
   3.35042  1.399246E-02
   3.36964  1.420962E-02
   3.38886  1.442522E-02
   3.40808  1.464246E-02
   3.42729  1.484721E-02
   3.44651  1.505338E-02
   3.46573  1.526113E-02
   3.48495  1.546213E-02
   3.50417  1.566442E-02
   3.52339  1.586642E-02
   3.54261  1.606297E-02
   3.56182  1.626068E-02
   3.58104  1.645758E-02
   3.60026  1.665018E-02
   3.61948  1.684380E-02
   3.63870  1.703658E-02
   3.65792  1.722560E-02
   3.67713  1.741557E-02
   3.69635  1.760502E-02
   3.71557  1.779090E-02
   3.73479  1.797764E-02
   3.75401  1.816428E-02
   3.77323  1.834712E-02
   3.79244  1.853072E-02
   3.81166  1.871464E-02
   3.83088  1.889485E-02
   3.85010  1.907546E-02
   3.86932  1.925655E-02
   3.88854  1.943431E-02
   3.90776  1.961156E-02
   3.92697  1.978945E-02
   3.94619  1.996466E-02
   3.96541  2.013827E-02
   3.98463  2.031245E-02
   4.00385  2.048561E-02
   4.02307  2.065665E-02
   4.04228  2.082819E-02
   4.06150  2.099934E-02
   4.08072  2.116698E-02
   4.09994  2.133469E-02
   4.11916  2.150285E-02
   4.13838  2.166834E-02
   4.15760  2.183260E-02
   4.17681  2.199725E-02
   4.19603  2.216183E-02
   4.21525  2.232454E-02
   4.23447  2.248741E-02
   4.25369  2.265063E-02
   4.27291  2.281372E-02
   4.29212  2.297615E-02
   4.31134  2.313892E-02
   4.33056  2.330170E-02
   4.34978  2.346288E-02
   4.36900  2.362403E-02
   4.38822  2.378548E-02
   4.40743  2.394611E-02
   4.42665  2.410526E-02
   4.44587  2.426468E-02
   4.46509  2.442439E-02
   4.48431  2.458211E-02
   4.50353  2.473923E-02
   4.52275  2.489659E-02
   4.54196  2.505383E-02
   4.56118  2.520871E-02
   4.58040  2.536340E-02
   4.59962  2.551832E-02
   4.61884  2.567258E-02
   4.63806  2.582457E-02
   4.65727  2.597653E-02
   4.67649  2.612869E-02
   4.69571  2.627970E-02
   4.71493  2.642841E-02
   4.73415  2.657721E-02
   4.75337  2.672618E-02
   4.77259  2.687343E-02
   4.79180  2.701823E-02
   4.81102  2.716313E-02
   4.83024  2.730816E-02
   4.84946  2.745097E-02
   4.86868  2.759080E-02
   4.88790  2.773070E-02
   4.90711  2.787069E-02
   4.92633  2.800735E-02
   4.94555  2.813886E-02
   4.96477  2.827034E-02
   4.98399  2.840189E-02
   5.00321  2.853203E-02
   5.02243  2.865814E-02
   5.04164  2.878406E-02
   5.06086  2.890998E-02
   5.08008  2.903617E-02
   5.09930  2.916461E-02
   5.11852  2.929274E-02
   5.13774  2.942088E-02
   5.15695  2.954906E-02
   5.17617  2.967571E-02
   5.19539  2.980156E-02
   5.21461  2.992741E-02
   5.23383  3.005329E-02
   5.25305  3.017777E-02
   5.27226  3.030016E-02
   5.29148  3.042247E-02
   5.31070  3.054475E-02
   5.32992  3.066683E-02
   5.34914  3.078483E-02
   5.36836  3.090247E-02
   5.38758  3.102011E-02
   5.40679  3.113773E-02
   5.42601  3.125181E-02
   5.44523  3.136267E-02
   5.46445  3.147349E-02
   5.48367  3.158427E-02
   5.50289  3.169484E-02
   5.52210  3.179337E-02
   5.54132  3.189135E-02
   5.56054  3.198930E-02
   5.57976  3.208718E-02
   5.59898  3.218099E-02
   5.61820  3.226779E-02
   5.63741  3.235427E-02
   5.65663  3.244061E-02
   5.67585  3.252678E-02
   5.69507  3.261732E-02
   5.71429  3.270963E-02
   5.73351  3.280178E-02
   5.75273  3.289378E-02
   5.77194  3.298562E-02
   5.79116  3.308460E-02
   5.81038  3.318403E-02
   5.82960  3.328331E-02
   5.84882  3.338246E-02
   5.86804  3.348156E-02
   5.88725  3.358230E-02
   5.90647  3.368266E-02
   5.92569  3.378291E-02
   5.94491  3.388303E-02
   5.96413  3.398337E-02
   5.98335  3.408662E-02
   6.00257  3.418953E-02
   6.02178  3.429234E-02
   6.04100  3.439502E-02
   6.06022  3.449812E-02
   6.07944  3.460690E-02
   6.09866  3.471537E-02
   6.11788  3.482375E-02
   6.13709  3.493204E-02
   6.15631  3.504024E-02
   6.17553  3.514556E-02
   6.19475  3.525048E-02
   6.21397  3.535533E-02
   6.23319  3.546011E-02
   6.25241  3.556482E-02
   6.27162  3.566560E-02
   6.29084  3.576503E-02
   6.31006  3.586437E-02
   6.32928  3.596366E-02
   6.34850  3.606285E-02
   6.36772  3.616114E-02
   6.38693  3.625832E-02
   6.40615  3.635537E-02
   6.42537  3.645232E-02
   6.44459  3.654923E-02
   6.46381  3.664578E-02
   6.48303  3.674095E-02
   6.50224  3.683586E-02
   6.52146  3.693071E-02
   6.54068  3.702548E-02
   6.55990  3.712017E-02
   6.57912  3.721682E-02
   6.59834  3.731371E-02
   6.61756  3.741052E-02
   6.63677  3.750725E-02
   6.65599  3.760387E-02
   6.67521  3.770820E-02
   6.69443  3.783939E-02
   6.71365  3.797035E-02
   6.73287  3.810127E-02
   6.75208  3.823217E-02
   6.77130  3.836302E-02
   6.79052  3.842261E-02
   6.80974  3.843616E-02
   6.82896  3.844961E-02
   6.84818  3.846304E-02
   6.86739  3.847646E-02
   6.88661  3.848986E-02
   6.90583  3.885807E-02
   6.92505  3.910027E-02
   6.94427  3.947010E-02
   6.96349  3.966801E-02
   6.98271  3.988063E-02
   7.00192  4.009708E-02
   7.02114  4.029177E-02
   7.04036  4.057590E-02
   7.05958  4.081088E-02
   7.07880  4.102670E-02
   7.09802  4.124651E-02
   7.11723  4.140570E-02
   7.13645  4.152911E-02
   7.15567  4.147452E-02
   7.17489  4.132932E-02
   7.19411  4.133281E-02
   7.21333  4.136642E-02
   7.23255  4.137137E-02
   7.25176  4.113691E-02
   7.27098  4.090658E-02
   7.29020  4.068080E-02
   7.30942  4.042553E-02
   7.32864  4.016659E-02
   7.34786  3.987781E-02
   7.36707  3.956873E-02
   7.38629  3.926109E-02
   7.40551  3.897967E-02
   7.42473  3.881676E-02
   7.44395  3.885185E-02
   7.46317  3.870148E-02
   7.48239  3.852201E-02
   7.50160  3.834649E-02
   7.52082  3.817544E-02
   7.54004  3.800135E-02
   7.55926  3.780741E-02
   7.57848  3.761357E-02
   7.59770  3.741892E-02
   7.61691  3.722278E-02
   7.63613  3.706257E-02
   7.65535  3.697724E-02
   7.67457  3.689201E-02
   7.69379  3.680682E-02
   7.71301  3.672169E-02
   7.73222  3.663646E-02
   7.75144  3.655668E-02
   7.77066  3.651689E-02
   7.78988  3.647697E-02
   7.80910  3.645753E-02
   7.82832  3.640455E-02
   7.84754  3.624892E-02
   7.86675  3.635728E-02
   7.88597  3.643157E-02
   7.90519  3.649243E-02
   7.92441  3.655834E-02
   7.94363  3.666782E-02
   7.96285  3.684279E-02
   7.98206  3.708036E-02
   8.00128  3.737269E-02
   8.02050  3.767171E-02
   8.03972  3.791466E-02
   8.05894  3.814331E-02
   8.07816  3.835621E-02
   8.09737  3.821148E-02
   8.11659  3.807222E-02
   8.13581  3.787273E-02
   8.15503  3.751814E-02
   8.17425  3.711930E-02
   8.19347  3.680617E-02
   8.21269  3.660288E-02
   8.23190  3.659163E-02
   8.25112  3.667177E-02
   8.27034  3.679213E-02
   8.28956  3.689842E-02
   8.30878  3.691288E-02
   8.32800  3.690493E-02
   8.34721  3.689699E-02
   8.36643  3.681521E-02
   8.38565  3.675108E-02
   8.40487  3.672158E-02
   8.42409  3.663262E-02
   8.44331  3.656602E-02
   8.46253  3.652852E-02
   8.48174  3.646356E-02
   8.50096  3.641603E-02
   8.52018  3.639007E-02
   8.53940  3.629316E-02
   8.55862  3.623320E-02
   8.57784  3.623245E-02
   8.59705  3.623166E-02
   8.61627  3.624434E-02
   8.63549  3.628598E-02
   8.65471  3.632817E-02
   8.67393  3.638833E-02
   8.69315  3.652323E-02
   8.71237  3.664073E-02
   8.73158  3.674671E-02
   8.75080  3.683630E-02
   8.77002  3.688625E-02
   8.78924  3.687812E-02
   8.80846  3.686986E-02
   8.82768  3.685904E-02
   8.84689  3.683473E-02
   8.86611  3.686047E-02
   8.88533  3.693213E-02
   8.90455  3.703988E-02
   8.92377  3.715311E-02
   8.94299  3.726627E-02
   8.96220  3.737950E-02
   8.98142  3.749281E-02
   9.00064  3.760623E-02
   9.01986  3.774069E-02
   9.03908  3.800087E-02
   9.05830  3.822826E-02
   9.07752  3.841178E-02
   9.09673  3.856144E-02
   9.11595  3.869760E-02
   9.13517  3.879566E-02
   9.15439  3.889505E-02
   9.17361  3.899705E-02
   9.19283  3.910171E-02
   9.21204  3.920899E-02
   9.23126  3.917802E-02
   9.25048  3.908416E-02
   9.26970  3.899441E-02
   9.28892  3.889604E-02
   9.30814  3.866507E-02
   9.32736  3.843295E-02
   9.34657  3.818998E-02
   9.36579  3.794843E-02
   9.38501  3.770805E-02
   9.40423  3.746925E-02
   9.42345  3.723205E-02
   9.44267  3.701355E-02
   9.46188  3.680187E-02
   9.48110  3.659069E-02
   9.50032  3.637993E-02
   9.51954  3.616964E-02
   9.53876  3.595946E-02
   9.55798  3.575073E-02
   9.57719  3.555834E-02
   9.59641  3.545065E-02
   9.61563  3.534300E-02
   9.63485  3.523545E-02
   9.65407  3.512876E-02
   9.67329  3.502418E-02
   9.69250  3.491969E-02
   9.71172  3.481522E-02
   9.73094  3.471364E-02
   9.75016  3.461735E-02
   9.76938  3.453236E-02
   9.78860  3.446792E-02
   9.80782  3.440346E-02
   9.82703  3.433903E-02
   9.84625  3.427460E-02
   9.86547  3.421016E-02
   9.88469  3.414575E-02
   9.90391  3.408134E-02
   9.92313  3.401120E-02
   9.94234  3.392151E-02
   9.96156  3.382701E-02
   9.98078  3.370183E-02
   10.0000  3.357949E-02
 10.0601  3.326203E-02
   10.1202  3.282941E-02
   10.1804  3.232551E-02
   10.2405  3.179701E-02
   10.3006  3.133752E-02
   10.3607  3.088154E-02
   10.4208  3.034920E-02
   10.4810  2.954537E-02
   10.5411  2.868119E-02
   10.6012  2.766359E-02
   10.6613  2.683602E-02
   10.7214  2.604023E-02
   10.7816  2.540135E-02
   10.8417  2.508403E-02
   10.9018  2.488757E-02
   10.9619  2.473323E-02
   11.0220  2.458195E-02
   11.0822  2.424037E-02
   11.1423  2.385730E-02
   11.2024  2.342335E-02
   11.2625  2.311443E-02
   11.3226  2.307349E-02
   11.3828  2.322621E-02
   11.4429  2.288076E-02
   11.5030  2.232189E-02
   11.5631  2.195992E-02
   11.6232  2.124070E-02
   11.6834  2.058064E-02
   11.7435  1.956054E-02
   11.8036  2.024518E-02
   11.8637  2.134050E-02
   11.9238  2.264945E-02
   11.9840  2.423597E-02
   12.0441  2.469700E-02
   12.1042  2.442796E-02
   12.1643  2.680021E-02
   12.2244  2.719773E-02
   12.2846  2.254793E-02
   12.3447  1.337499E-02
   12.4048  9.687060E-03
   12.4649  1.028995E-02
   12.5251  1.338764E-02
   12.5852  1.541053E-02
   12.6453  1.760960E-02
   12.7054  1.992986E-02
   12.7655  2.127625E-02
   12.8257  2.267284E-02
   12.8858  2.411930E-02
   12.9459  2.535918E-02
   13.0060  2.647939E-02
   13.0661  2.762615E-02
   13.1263  2.876483E-02
   13.1864  2.974097E-02
   13.2465  3.073450E-02
   13.3066  3.174531E-02
   13.3667  3.268593E-02
   13.4269  3.358850E-02
   13.4870  3.450386E-02
   13.5471  3.542762E-02
   13.6072  3.626554E-02
   13.6673  3.711337E-02
   13.7275  3.797098E-02
   13.7876  3.880530E-02
   13.8477  3.959846E-02
   13.9078  4.039935E-02
   13.9679  4.120795E-02
   14.0281  4.198013E-02
   14.0882  4.273969E-02
   14.1483  4.350554E-02
   14.2084  4.427770E-02
   14.2685  4.500825E-02
   14.3287  4.574081E-02
   14.3888  4.647860E-02
   14.4489  4.721869E-02
   14.5090  4.794021E-02
   14.5691  4.866643E-02
   14.6293  4.939727E-02
   14.6894  5.012406E-02
   14.7495  5.082501E-02
   14.8096  5.152968E-02
   14.8697  5.223810E-02
   14.9299  5.293569E-02
   14.9900  5.359864E-02
   15.0501  5.426447E-02
   15.1102  5.493318E-02
   15.1703  5.559701E-02
   15.2305  5.624215E-02
   15.2906  5.688968E-02
   15.3507  5.753956E-02
   15.4108  5.819039E-02
   15.4709  5.883737E-02
   15.5311  5.948653E-02
   15.5912  6.013783E-02
   15.6513  6.078923E-02
   15.7114  6.139989E-02
   15.7715  6.201177E-02
   15.8317  6.262480E-02
   15.8918  6.323892E-02
   15.9519  6.382021E-02
   16.0120  6.439549E-02
   16.0721  6.497143E-02
   16.1323  6.554802E-02
   16.1924  6.609640E-02
   16.2525  6.662210E-02
   16.3126  6.714798E-02
   16.3727  6.767400E-02
   16.4329  6.819053E-02
   16.4930  6.867073E-02
   16.5531  6.915089E-02
   16.6132  6.963092E-02
   16.6733  7.011089E-02
   16.7335  7.058528E-02
   16.7936  7.105820E-02
   16.8537  7.153105E-02
   16.9138  7.200378E-02
   16.9739  7.247180E-02
   17.0341  7.292908E-02
   17.0942  7.338612E-02
   17.1543  7.384289E-02
   17.2144  7.429937E-02
   17.2745  7.473277E-02
   17.3347  7.515779E-02
   17.3948  7.558234E-02
   17.4549  7.600642E-02
   17.5150  7.642721E-02
   17.5751  7.682403E-02
   17.6353  7.722035E-02
   17.6954  7.761619E-02
   17.7555  7.801148E-02
   17.8156  7.840950E-02
   17.8758  7.881207E-02
   17.9359  7.921417E-02
   17.9960  7.961581E-02
   18.0561  8.001698E-02
   18.1162  8.041937E-02
   18.1764  8.082239E-02
   18.2365  8.122490E-02
   18.2966  8.162692E-02
   18.3567  8.202840E-02
   18.4168  8.242599E-02
   18.4770  8.282183E-02
   18.5371  8.321709E-02
   18.5972  8.361180E-02
   18.6573  8.400588E-02
   18.7174  8.439010E-02
   18.7776  8.477139E-02
   18.8377  8.515199E-02
   18.8978  8.553191E-02
   18.9579  8.591115E-02
   19.0180  8.628633E-02
   19.0782  8.665988E-02
   19.1383  8.703275E-02
   19.1984  8.740488E-02
   19.2585  8.777630E-02
   19.3186  8.815195E-02
   19.3788  8.852922E-02
   19.4389  8.890576E-02
   19.4990  8.928156E-02
   19.5591  8.965658E-02
   19.6192  9.003018E-02
   19.6794  9.040231E-02
   19.7395  9.077363E-02
   19.7996  9.114414E-02
   19.8597  9.151385E-02
   19.9198  9.188125E-02
   19.9800  9.224258E-02
   20.0401  9.260306E-02
   20.1002  9.296268E-02
   20.1603  9.332139E-02
   20.2204  9.367922E-02
   20.2806  9.403581E-02
   20.3407  9.439144E-02
   20.4008  9.474619E-02
   20.4609  9.510008E-02
   20.5210  9.545302E-02
   20.5812  9.580600E-02
   20.6413  9.615941E-02
   20.7014  9.651189E-02
   20.7615  9.686343E-02
   20.8216  9.721405E-02
   20.8818  9.756369E-02
   20.9419  9.790560E-02
   21.0020  9.824572E-02
   21.0621  9.858484E-02
   21.1222  9.892294E-02
   21.1824  9.926003E-02
   21.2425  9.959386E-02
   21.3026  9.992062E-02
   21.3627  0.100246
   21.4228  0.100571
   21.4830  0.100895
   21.5431  0.101217
   21.6032  0.101535
   21.6633  0.101849
   21.7234  0.102161
   21.7836  0.102473
   21.8437  0.102783
   21.9038  0.103093
   21.9639  0.103395
   22.0240  0.103695
   22.0842  0.103994
   22.1443  0.104292
   22.2044  0.104588
   22.2645  0.104884
   22.3246  0.105175
   22.3848  0.105464
   22.4449  0.105752
   22.5050  0.106039
   22.5651  0.106325
   22.6252  0.106609
   22.6854  0.106826
   22.7455  0.107031
   22.8056  0.107236
   22.8657  0.107439
   22.9259  0.107641
   22.9860  0.107842
   23.0461  0.108188
   23.1062  0.108574
   23.1663  0.108960
   23.2265  0.109346
   23.2866  0.109732
   23.3467  0.110118
   23.4068  0.110502
   23.4669  0.110883
   23.5271  0.111262
   23.5872  0.111640
   23.6473  0.112017
   23.7074  0.112391
   23.7675  0.112743
   23.8277  0.113043
   23.8878  0.113342
   23.9479  0.113639
   24.0080  0.113935
   24.0681  0.114229
   24.1283  0.114522
   24.1884  0.114789
   24.2485  0.115052
   24.3086  0.115314
   24.3687  0.115574
   24.4289  0.115832
   24.4890  0.116090
   24.5491  0.116339
   24.6092  0.116579
   24.6693  0.116817
   24.7295  0.117053
   24.7896  0.117288
   24.8497  0.117522
   24.9098  0.117754
   24.9699  0.117975
   25.0301  0.118192
   25.0902  0.118408
   25.1503  0.118622
   25.2104  0.118835
   25.2705  0.119047
   25.3307  0.119255
   25.3908  0.119453
   25.4509  0.119650
   25.5110  0.119845
   25.5711  0.120039
   25.6313  0.120231
   25.6914  0.120422
   25.7515  0.120608
   25.8116  0.120786
   25.8717  0.120962
   25.9319  0.121137
   25.9920  0.121310
   26.0521  0.121482
   26.1122  0.121653
   26.1723  0.121818
   26.2325  0.121973
   26.2926  0.122127
   26.3527  0.122280
   26.4128  0.122431
   26.4729  0.122581
   26.5331  0.122730
   26.5932  0.122873
   26.6533  0.123007
   26.7134  0.123140
   26.7735  0.123271
