 Zr Density=6.506 Thickness=0.298 microns
 Wavelength (nm), Transmission
   0.41000      0.71093    
   0.42918      0.68227    
   0.44836      0.65323    
   0.46754      0.62402    
   0.48672      0.59484    
   0.50590      0.60740    
   0.52508      0.58005    
   0.54426      0.64888    
   0.56344      0.88198    
   0.58262      0.87254    
   0.60180      0.86278    
   0.62098      0.85279    
   0.64016      0.84247    
   0.65934      0.83183    
   0.67852      0.82088    
   0.69770      0.80964    
   0.71688      0.79815    
   0.73606      0.78650    
   0.75524      0.77458    
   0.77442      0.76244    
   0.79360      0.75005    
   0.81278      0.73746    
   0.83196      0.72469    
   0.85114      0.71181    
   0.87032      0.69878    
   0.88950      0.68560    
   0.90868      0.67229    
   0.92786      0.65885    
   0.94704      0.64341    
   0.96622      0.62664    
   0.98540      0.61015    
    1.0046      0.59413    
    1.0238      0.57830    
    1.0429      0.56369    
    1.0621      0.54972    
    1.0813      0.53587    
    1.1005      0.52275    
    1.1197      0.50969    
    1.1388      0.49639    
    1.1580      0.48211    
    1.1772      0.46740    
    1.1964      0.45279    
    1.2156      0.43937    
    1.2347      0.42652    
    1.2539      0.41383    
    1.2731      0.40128    
    1.2923      0.38888    
    1.3115      0.37662    
    1.3306      0.36435    
    1.3498      0.35157    
    1.3690      0.33898    
    1.3882      0.32661    
    1.4074      0.31445    
    1.4265      0.30253    
    1.4457      0.29083    
    1.4649      0.28031    
    1.4841      0.27052    
    1.5033      0.26095    
    1.5224      0.25159    
    1.5416      0.24244    
    1.5608      0.23350    
    1.5800      0.22478    
    1.5992      0.21626    
    1.6183      0.20807    
    1.6375      0.20029    
    1.6567      0.19290    
    1.6759      0.18570    
    1.6951      0.17869    
    1.7142      0.17188    
    1.7334      0.16525    
    1.7526      0.15881    
    1.7718      0.15255    
    1.7910      0.14648    
    1.8101      0.14059    
    1.8293      0.13488    
    1.8485      0.12934    
    1.8677      0.12398    
    1.8869      0.11879    
    1.9060      0.11376    
    1.9252      0.10890    
    1.9444      0.10419    
    1.9636      0.99599E-01
    1.9828      0.95147E-01
    2.0019      0.90852E-01
    2.0211      0.86711E-01
    2.0403      0.82722E-01
    2.0595      0.78880E-01
    2.0787      0.75182E-01
    2.0978      0.71626E-01
    2.1170      0.68207E-01
    2.1362      0.64922E-01
    2.1554      0.61766E-01
    2.1746      0.58738E-01
    2.1937      0.55832E-01
    2.2129      0.53046E-01
    2.2321      0.50376E-01
    2.2513      0.47819E-01
    2.2705      0.45371E-01
    2.2896      0.43029E-01
    2.3088      0.41169E-01
    2.3280      0.39504E-01
    2.3472      0.37961E-01
    2.3664      0.36473E-01
    2.3855      0.35038E-01
    2.4047      0.33654E-01
    2.4239      0.32320E-01
    2.4431      0.31033E-01
    2.4623      0.29794E-01
    2.4814      0.28599E-01
    2.5006      0.27448E-01
    2.5198      0.26339E-01
    2.5390      0.25271E-01
    2.5582      0.24243E-01
    2.5773      0.23252E-01
    2.5965      0.22299E-01
    2.6157      0.21382E-01
    2.6349      0.20469E-01
    2.6541      0.19583E-01
    2.6732      0.18721E-01
    2.6924      0.17889E-01
    2.7116      0.17090E-01
    2.7308      0.16324E-01
    2.7500      0.15590E-01
    2.7691      0.14885E-01
    2.7883      0.14237E-01
    2.8075      0.13645E-01
    2.8267      0.13126E-01
    2.8459      0.12734E-01
    2.8650      0.12353E-01
    2.8842      0.11984E-01
    2.9034      0.11625E-01
    2.9226      0.11277E-01
    2.9418      0.10940E-01
    2.9609      0.10612E-01
    2.9801      0.10294E-01
    2.9993      0.99861E-02
    3.0185      0.96869E-02
    3.0377      0.93981E-02
    3.0568      0.91407E-02
    3.0760      0.88905E-02
    3.0952      0.86876E-02
    3.1144      0.85060E-02
    3.1336      0.83286E-02
    3.1527      0.81552E-02
    3.1719      0.79857E-02
    3.1911      0.78199E-02
    3.2103      0.76579E-02
    3.2295      0.74995E-02
    3.2486      0.73447E-02
    3.2678      0.71933E-02
    3.2870      0.70040E-02
    3.3062      0.68173E-02
    3.3254      0.65911E-02
    3.3445      0.63105E-02
    3.3637      0.60411E-02
    3.3829      0.57824E-02
    3.4021      0.55342E-02
    3.4213      0.52959E-02
    3.4404      0.50672E-02
    3.4596      0.48479E-02
    3.4788      0.46375E-02
    3.4980      0.44356E-02
    3.5172      0.42421E-02
    3.5363      0.40564E-02
    3.5555      0.38785E-02
    3.5747      0.37198E-02
    3.5939      0.36224E-02
    3.6131      0.35277E-02
    3.6322      0.35338E-02
    3.6514      0.36871E-02
    3.6706      0.38449E-02
    3.6898      0.40074E-02
    3.7090      0.41746E-02
    3.7281      0.43465E-02
    3.7473      0.45233E-02
    3.7665      0.47049E-02
    3.7857      0.48915E-02
    3.8049      0.50281E-02
    3.8240      0.51579E-02
    3.8432      0.52898E-02
    3.8624      0.52399E-02
    3.8816      0.51759E-02
    3.9008      0.51129E-02
    3.9199      0.50508E-02
    3.9391      0.49897E-02
    3.9583      0.49294E-02
    3.9775      0.48857E-02
    3.9967      0.48439E-02
    4.0158      0.48025E-02
    4.0350      0.48256E-02
    4.0542      0.48594E-02
    4.0734      0.48933E-02
    4.0926      0.49272E-02
    4.1117      0.49613E-02
    4.1309      0.49953E-02
    4.1501      0.50293E-02
    4.1693      0.50633E-02
    4.1885      0.50973E-02
    4.2076      0.50908E-02
    4.2268      0.50181E-02
    4.2460      0.49466E-02
    4.2652      0.48756E-02
    4.2844      0.48016E-02
    4.3035      0.47289E-02
    4.3227      0.46573E-02
    4.3419      0.45870E-02
    4.3611      0.45178E-02
    4.3803      0.44498E-02
    4.3994      0.43868E-02
    4.4186      0.43290E-02
    4.4378      0.42720E-02
    4.4570      0.42190E-02
    4.4762      0.42071E-02
    4.4953      0.41953E-02
    4.5145      0.41835E-02
    4.5337      0.41718E-02
    4.5529      0.41602E-02
    4.5721      0.41486E-02
    4.5912      0.41372E-02
    4.6104      0.41258E-02
    4.6296      0.41145E-02
    4.6488      0.41033E-02
    4.6680      0.41281E-02
    4.6871      0.41814E-02
    4.7063      0.42350E-02
    4.7255      0.42889E-02
    4.7447      0.43461E-02
    4.7639      0.44038E-02
    4.7830      0.44620E-02
    4.8022      0.45205E-02
    4.8214      0.45794E-02
    4.8406      0.46387E-02
    4.8598      0.46984E-02
    4.8789      0.47562E-02
    4.8981      0.48127E-02
    4.9173      0.48695E-02
    4.9365      0.49266E-02
    4.9557      0.49609E-02
    4.9748      0.49896E-02
    4.9940      0.50184E-02
    5.0132      0.50472E-02
    5.0324      0.50760E-02
    5.0516      0.51048E-02
    5.0707      0.51337E-02
    5.0899      0.51755E-02
    5.1091      0.53434E-02
    5.1283      0.55149E-02
    5.1475      0.56903E-02
    5.1666      0.59048E-02
    5.1858      0.63279E-02
    5.2050      0.67733E-02
    5.2242      0.72417E-02
    5.2434      0.77299E-02
    5.2625      0.82204E-02
    5.2817      0.87333E-02
    5.3009      0.92692E-02
    5.3201      0.98207E-02
    5.3393      0.10318E-01
    5.3584      0.10833E-01
    5.3776      0.11366E-01
    5.3968      0.11917E-01
    5.4160      0.12487E-01
    5.4352      0.13075E-01
    5.4543      0.13682E-01
    5.4735      0.14309E-01
    5.4927      0.14887E-01
    5.5119      0.15464E-01
    5.5311      0.16054E-01
    5.5502      0.16660E-01
    5.5694      0.17209E-01
    5.5886      0.17708E-01
    5.6078      0.18217E-01
    5.6270      0.18735E-01
    5.6461      0.19263E-01
    5.6653      0.19799E-01
    5.6845      0.20344E-01
    5.7037      0.20898E-01
    5.7229      0.21462E-01
    5.7420      0.22035E-01
    5.7612      0.22617E-01
    5.7804      0.23209E-01
    5.7996      0.23810E-01
    5.8188      0.24875E-01
    5.8379      0.26577E-01
    5.8571      0.28355E-01
    5.8763      0.30210E-01
    5.8955      0.32145E-01
    5.9147      0.35318E-01
    5.9338      0.38775E-01
    5.9530      0.42446E-01
    5.9722      0.46335E-01
    5.9914      0.51290E-01
    6.0106      0.58109E-01
    6.0297      0.65466E-01
    6.0489      0.73363E-01
    6.0681      0.81792E-01
    6.0873      0.90753E-01
    6.1065      0.10023    
    6.1256      0.11022    
    6.1448      0.12069    
    6.1640      0.13160    
    6.1832      0.14207    
    6.2024      0.15291    
    6.2215      0.16408    
    6.2407      0.17556    
    6.2599      0.18534    
    6.2791      0.18947    
    6.2983      0.19363    
    6.3174      0.19780    
    6.3366      0.20200    
    6.3558      0.20622    
    6.3750      0.21046    
    6.3942      0.21472    
    6.4133      0.21899    
    6.4325      0.22328    
    6.4517      0.22896    
    6.4709      0.23610    
    6.4901      0.24329    
    6.5092      0.25052    
    6.5284      0.25778    
    6.5476      0.26558    
    6.5668      0.27391    
    6.5860      0.28226    
    6.6051      0.29065    
    6.6243      0.29906    
    6.6435      0.30699    
    6.6627      0.31429    
    6.6819      0.32159    
    6.7010      0.32889    
    6.7202      0.33618    
    6.7394      0.34127    
    6.7586      0.34123    
    6.7778      0.34120    
    6.7969      0.34116    
    6.8161      0.34113    
    6.8353      0.34109    
    6.8545      0.34106    
    6.8737      0.34103    
    6.8928      0.34099    
    6.9120      0.34096    
    6.9312      0.34092    
    6.9504      0.35163    
    6.9696      0.36518    
    6.9887      0.37870    
    7.0079      0.39217    
    7.0271      0.40556    
    7.0463      0.40933    
    7.0655      0.40895    
    7.0846      0.40856    
    7.1038      0.40818    
    7.1230      0.40779    
    7.1422      0.40741    
    7.1614      0.40703    
    7.1805      0.40665    
    7.1997      0.40627    
    7.2189      0.40589    
    7.2381      0.40551    
    7.2573      0.40514    
    7.2764      0.40476    
    7.2956      0.40439    
    7.3148      0.40401    
    7.3340      0.40364    
    7.3532      0.40327    
    7.3723      0.40290    
    7.3915      0.40253    
    7.4107      0.40216    
    7.4299      0.40179    
    7.4491      0.40143    
    7.4682      0.40106    
    7.4874      0.40069    
    7.5066      0.40033    
    7.5258      0.39997    
    7.5450      0.39960    
    7.5641      0.39924    
    7.5833      0.39888    
    7.6025      0.39852    
    7.6217      0.39816    
    7.6409      0.39780    
    7.6600      0.39745    
    7.6792      0.39709    
    7.6984      0.39673    
    7.7176      0.39638    
    7.7368      0.39603    
    7.7559      0.39567    
    7.7751      0.39532    
    7.7943      0.39497    
    7.8135      0.39462    
    7.8327      0.39427    
    7.8518      0.39392    
    7.8710      0.39357    
    7.8902      0.39323    
    7.9094      0.39288    
    7.9286      0.39253    
    7.9477      0.39219    
    7.9669      0.39185    
    7.9861      0.39150    
    8.0053      0.39119    
    8.0245      0.39091    
    8.0436      0.39063    
    8.0628      0.39035    
    8.0820      0.39007    
    8.1012      0.38979    
    8.1204      0.38953    
    8.1395      0.38933    
    8.1587      0.38912    
    8.1779      0.38892    
    8.1971      0.38871    
    8.2163      0.38851    
    8.2354      0.38830    
    8.2546      0.38810    
    8.2738      0.38790    
    8.2930      0.38770    
    8.3122      0.38749    
    8.3313      0.38729    
    8.3505      0.38709    
    8.3697      0.38689    
    8.3889      0.38669    
    8.4081      0.38649    
    8.4272      0.38629    
    8.4464      0.38609    
    8.4656      0.38589    
    8.4848      0.38570    
    8.5040      0.38550    
    8.5231      0.38530    
    8.5423      0.38511    
    8.5615      0.38491    
    8.5807      0.38472    
    8.5999      0.38452    
    8.6190      0.38433    
    8.6382      0.38413    
    8.6574      0.38394    
    8.6766      0.38374    
    8.6958      0.38355    
    8.7149      0.38336    
    8.7341      0.38317    
    8.7533      0.38297    
    8.7725      0.38278    
    8.7917      0.38259    
    8.8108      0.38240    
    8.8300      0.38221    
    8.8492      0.38202    
    8.8684      0.38183    
    8.8876      0.38164    
    8.9067      0.38146    
    8.9259      0.38127    
    8.9451      0.38108    
    8.9643      0.38089    
    8.9835      0.38071    
    9.0026      0.38052    
    9.0218      0.38033    
    9.0410      0.38015    
    9.0602      0.37996    
    9.0794      0.37978    
    9.0985      0.37959    
    9.1177      0.37941    
    9.1369      0.37922    
    9.1561      0.37904    
    9.1753      0.37886    
    9.1944      0.37868    
    9.2136      0.37849    
    9.2328      0.37831    
    9.2520      0.37813    
    9.2712      0.37794    
    9.2903      0.37773    
    9.3095      0.37753    
    9.3287      0.37732    
    9.3479      0.37711    
    9.3671      0.37691    
    9.3862      0.37670    
    9.4054      0.37649    
    9.4246      0.37628    
    9.4438      0.37606    
    9.4630      0.37585    
    9.4821      0.37564    
    9.5013      0.37542    
    9.5205      0.37521    
    9.5397      0.37500    
    9.5589      0.37479    
    9.5780      0.37458    
    9.5972      0.37437    
    9.6164      0.37416    
    9.6356      0.37395    
    9.6548      0.37374    
    9.6739      0.37353    
    9.6931      0.37332    
    9.7123      0.37311    
    9.7315      0.37290    
    9.7507      0.37270    
    9.7698      0.37249    
    9.7890      0.37228    
    9.8082      0.37208    
    9.8274      0.37187    
    9.8466      0.37166    
    9.8657      0.37146    
    9.8849      0.37126    
    9.9041      0.37105    
    9.9233      0.37085    
    9.9425      0.37064    
    9.9616      0.37044    
    9.9808      0.37024      
    10.080      0.36920    
    10.160      0.36837    
    10.240      0.36754    
    10.320      0.36672    
    10.400      0.36591    
    10.480      0.36525    
    10.560      0.36467    
    10.640      0.36479    
    10.720      0.36517    
    10.800      0.36554    
    10.880      0.36591    
    10.960      0.36628    
    11.040      0.36664    
    11.120      0.36748    
    11.200      0.36847    
    11.280      0.36956    
    11.360      0.37070    
    11.440      0.37182    
    11.520      0.37294    
    11.600      0.37404    
    11.680      0.37514    
    11.760      0.37624    
    11.840      0.37732    
    11.920      0.37840    
    12.000      0.37947    
    12.080      0.38053    
    12.160      0.38004    
    12.240      0.37949    
    12.320      0.37873    
    12.400      0.37790    
    12.480      0.37707    
    12.560      0.37625    
    12.640      0.37544    
    12.720      0.37462    
    12.800      0.37382    
    12.880      0.37302    
    12.960      0.37222    
    13.040      0.37054    
    13.120      0.36753    
    13.200      0.36454    
    13.280      0.36136    
    13.360      0.35819    
    13.440      0.35505    
    13.520      0.35192    
    13.600      0.34881    
    13.680      0.34572    
    13.760      0.34265    
    13.840      0.33960    
    13.920      0.33657    
    14.000      0.33356    
    14.080      0.33057    
    14.160      0.32760    
    14.240      0.32466    
    14.320      0.32175    
    14.400      0.31886    
    14.480      0.31600    
    14.560      0.31315    
    14.640      0.31032    
    14.720      0.30751    
    14.800      0.30472    
    14.880      0.30195    
    14.960      0.29920    
    15.040      0.29646    
    15.120      0.29372    
    15.200      0.29098    
    15.280      0.28825    
    15.360      0.28389    
    15.440      0.27904    
    15.520      0.27423    
    15.600      0.26946    
    15.680      0.26474    
    15.760      0.26007    
    15.840      0.25543    
    15.920      0.25085    
    16.000      0.24620    
    16.080      0.24073    
    16.160      0.23532    
    16.240      0.22977    
    16.320      0.22303    
    16.400      0.21638    
    16.480      0.20983    
    16.560      0.20339    
    16.640      0.19706    
    16.720      0.19083    
    16.800      0.18471    
    16.880      0.17870    
    16.960      0.17280    
    17.040      0.16701    
    17.120      0.16134    
    17.200      0.15578    
    17.280      0.15034    
    17.360      0.14501    
    17.440      0.13980    
    17.520      0.13471    
    17.600      0.12973    
    17.680      0.12488    
    17.760      0.12003    
    17.840      0.11512    
    17.920      0.11035    
    18.000      0.10556    
    18.080      0.99249E-01
    18.160      0.93181E-01
    18.240      0.87359E-01
    18.320      0.81780E-01
    18.400      0.76444E-01
    18.480      0.71348E-01
    18.560      0.66489E-01
    18.640      0.61865E-01
    18.720      0.57470E-01
    18.800      0.53301E-01
    18.880      0.49353E-01
    18.960      0.45620E-01
    19.040      0.42097E-01
    19.120      0.38778E-01
    19.200      0.35659E-01
    19.280      0.32731E-01
    19.360      0.29988E-01
    19.440      0.27424E-01
    19.520      0.25032E-01
    19.600      0.22804E-01
    19.680      0.20734E-01
    19.760      0.18815E-01
    19.840      0.17038E-01
    19.920      0.15398E-01
    20.000      0.13886E-01
    20.080      0.12496E-01
    20.160      0.11221E-01
    20.240      0.10054E-01
    20.320      0.89875E-02
    20.400      0.80164E-02
    20.480      0.71336E-02
    20.560      0.63331E-02
    20.640      0.56092E-02
    20.720      0.49559E-02
    20.800      0.43679E-02
    20.880      0.38401E-02
    20.960      0.33675E-02
    21.040      0.29454E-02
    21.120      0.25695E-02
    21.200      0.22355E-02
    21.280      0.19398E-02
    21.360      0.16785E-02
    21.440      0.14484E-02
    21.520      0.12463E-02
    21.600      0.10693E-02
    21.680      0.91478E-03
    21.760      0.78027E-03
    21.840      0.66353E-03
    21.920      0.56254E-03
    22.000      0.47544E-03
    22.080      0.40056E-03
    22.160      0.33640E-03
    22.240      0.28159E-03
    22.320      0.23494E-03
    22.400      0.19537E-03
    22.480      0.16190E-03
    22.560      0.13372E-03
    22.640      0.11005E-03
    22.720      0.90252E-04
    22.800      0.73933E-04
    22.880      0.60904E-04
    22.960      0.50009E-04
    23.040      0.40927E-04
    23.120      0.33383E-04
    23.200      0.27311E-04
    23.280      0.22275E-04
    23.360      0.18109E-04
    23.440      0.14674E-04
    23.520      0.11851E-04
    23.600      0.95394E-05
    23.680      0.76525E-05
    23.760      0.61179E-05
    23.840      0.48739E-05
    23.920      0.38693E-05
    24.000      0.30608E-05
    24.080      0.24125E-05
    24.160      0.18946E-05
    24.240      0.14824E-05
    24.320      0.11555E-05
    24.400      0.89738E-06
    24.480      0.69423E-06
    24.560      0.53498E-06
    24.640      0.41066E-06
    24.720      0.31398E-06
    24.800      0.23911E-06
    24.880      0.18134E-06
    24.960      0.13697E-06
