 Al Density=2.6989 Thickness=0.5 microns
 Wavelength (nm), Transmission
   0.42000      0.89577    
   0.43916      0.88315    
   0.45832      0.86983    
   0.47748      0.85585    
   0.49664      0.84124    
   0.51580      0.82605    
   0.53496      0.81031    
   0.55412      0.79408    
   0.57328      0.77739    
   0.59244      0.76032    
   0.61160      0.74292    
   0.63076      0.72568    
   0.64992      0.70794    
   0.66908      0.68987    
   0.68824      0.67151    
   0.70740      0.65298    
   0.72656      0.63474    
   0.74572      0.61670    
   0.76488      0.59856    
   0.78404      0.58035    
   0.80320      0.95242    
   0.82236      0.94911    
   0.84152      0.94579    
   0.86068      0.94246    
   0.87984      0.93905    
   0.89900      0.93552    
   0.91816      0.93187    
   0.93732      0.92811    
   0.95648      0.92423    
   0.97564      0.92023    
   0.99480      0.91607    
    1.0140      0.91175    
    1.0331      0.90730    
    1.0523      0.90271    
    1.0714      0.89800    
    1.0906      0.89317    
    1.1098      0.88821    
    1.1289      0.88313    
    1.1481      0.87793    
    1.1672      0.87260    
    1.1864      0.86718    
    1.2056      0.86175    
    1.2247      0.85625    
    1.2439      0.85051    
    1.2630      0.84464    
    1.2822      0.83864    
    1.3014      0.83253    
    1.3205      0.82631    
    1.3397      0.81998    
    1.3588      0.81355    
    1.3780      0.80702    
    1.3972      0.80038    
    1.4163      0.79364    
    1.4355      0.78680    
    1.4546      0.77987    
    1.4738      0.77285    
    1.4930      0.76574    
    1.5121      0.75853    
    1.5313      0.75124    
    1.5504      0.74387    
    1.5696      0.73641    
    1.5888      0.72889    
    1.6079      0.72132    
    1.6271      0.71372    
    1.6462      0.70606    
    1.6654      0.69834    
    1.6846      0.69056    
    1.7037      0.68272    
    1.7229      0.67481    
    1.7420      0.66692    
    1.7612      0.65915    
    1.7804      0.65161    
    1.7995      0.64408    
    1.8187      0.63644    
    1.8378      0.62844    
    1.8570      0.62019    
    1.8762      0.61148    
    1.8953      0.60274    
    1.9145      0.59397    
    1.9336      0.58531    
    1.9528      0.57674    
    1.9720      0.56828    
    1.9911      0.55993    
    2.0103      0.55161    
    2.0294      0.54329    
    2.0486      0.53496    
    2.0678      0.52664    
    2.0869      0.51832    
    2.1061      0.51001    
    2.1252      0.50172    
    2.1444      0.49345    
    2.1636      0.48521    
    2.1827      0.47703    
    2.2019      0.46894    
    2.2210      0.46092    
    2.2402      0.45297    
    2.2594      0.44516    
    2.2785      0.43743    
    2.2977      0.42973    
    2.3168      0.42208    
    2.3360      0.41445    
    2.3552      0.40686    
    2.3743      0.39929    
    2.3935      0.39176    
    2.4126      0.38427    
    2.4318      0.37683    
    2.4510      0.36949    
    2.4701      0.36221    
    2.4893      0.35509    
    2.5084      0.34803    
    2.5276      0.34109    
    2.5468      0.33422    
    2.5659      0.32743    
    2.5851      0.32071    
    2.6042      0.31405    
    2.6234      0.30746    
    2.6426      0.30094    
    2.6617      0.29449    
    2.6809      0.28811    
    2.7000      0.28181    
    2.7192      0.27558    
    2.7384      0.26942    
    2.7575      0.26334    
    2.7767      0.25734    
    2.7958      0.25140    
    2.8150      0.24558    
    2.8342      0.23995    
    2.8533      0.23440    
    2.8725      0.22920    
    2.8916      0.22412    
    2.9108      0.21912    
    2.9300      0.21418    
    2.9491      0.20932    
    2.9683      0.20453    
    2.9874      0.19981    
    3.0066      0.19516    
    3.0258      0.19058    
    3.0449      0.18608    
    3.0641      0.18165    
    3.0832      0.17728    
    3.1024      0.17299    
    3.1216      0.16878    
    3.1407      0.16463    
    3.1599      0.16055    
    3.1790      0.15654    
    3.1982      0.15261    
    3.2174      0.14874    
    3.2365      0.14495    
    3.2557      0.14122    
    3.2748      0.13756    
    3.2940      0.13397    
    3.3132      0.13045    
    3.3323      0.12700    
    3.3515      0.12361    
    3.3706      0.12029    
    3.3898      0.11704    
    3.4090      0.11384    
    3.4281      0.11064    
    3.4473      0.10750    
    3.4664      0.10439    
    3.4856      0.10114    
    3.5048      0.97965E-01
    3.5239      0.94866E-01
    3.5431      0.91841E-01
    3.5622      0.88889E-01
    3.5814      0.86009E-01
    3.6006      0.83200E-01
    3.6197      0.80461E-01
    3.6389      0.77790E-01
    3.6580      0.75188E-01
    3.6772      0.72653E-01
    3.6964      0.70184E-01
    3.7155      0.67781E-01
    3.7347      0.65442E-01
    3.7538      0.63167E-01
    3.7730      0.60954E-01
    3.7922      0.58802E-01
    3.8113      0.56711E-01
    3.8305      0.54678E-01
    3.8496      0.52704E-01
    3.8688      0.50786E-01
    3.8880      0.48925E-01
    3.9071      0.47119E-01
    3.9263      0.45367E-01
    3.9454      0.43667E-01
    3.9646      0.42020E-01
    3.9838      0.40423E-01
    4.0029      0.38876E-01
    4.0221      0.37377E-01
    4.0412      0.35926E-01
    4.0604      0.34521E-01
    4.0796      0.33162E-01
    4.0987      0.31847E-01
    4.1179      0.30575E-01
    4.1370      0.29346E-01
    4.1562      0.28158E-01
    4.1754      0.27010E-01
    4.1945      0.25901E-01
    4.2137      0.24831E-01
    4.2328      0.23798E-01
    4.2520      0.22801E-01
    4.2712      0.21839E-01
    4.2903      0.20912E-01
    4.3095      0.20018E-01
    4.3286      0.19157E-01
    4.3478      0.18328E-01
    4.3670      0.17529E-01
    4.3861      0.16760E-01
    4.4053      0.16020E-01
    4.4244      0.15308E-01
    4.4436      0.14623E-01
    4.4628      0.13965E-01
    4.4819      0.13332E-01
    4.5011      0.12724E-01
    4.5202      0.12141E-01
    4.5394      0.11580E-01
    4.5586      0.11042E-01
    4.5777      0.10526E-01
    4.5969      0.10030E-01
    4.6160      0.95557E-02
    4.6352      0.91551E-02
    4.6544      0.87973E-02
    4.6735      0.84521E-02
    4.6927      0.81190E-02
    4.7118      0.78104E-02
    4.7310      0.75164E-02
    4.7502      0.72324E-02
    4.7693      0.69582E-02
    4.7885      0.66933E-02
    4.8076      0.64376E-02
    4.8268      0.61907E-02
    4.8460      0.59525E-02
    4.8651      0.57226E-02
    4.8843      0.55007E-02
    4.9034      0.52867E-02
    4.9226      0.50803E-02
    4.9418      0.48812E-02
    4.9609      0.46892E-02
    4.9801      0.45041E-02
    4.9992      0.43257E-02
    5.0184      0.41538E-02
    5.0376      0.39881E-02
    5.0567      0.38284E-02
    5.0759      0.36747E-02
    5.0950      0.35265E-02
    5.1142      0.33839E-02
    5.1334      0.32466E-02
    5.1525      0.31143E-02
    5.1717      0.29871E-02
    5.1908      0.28646E-02
    5.2100      0.27467E-02
    5.2292      0.26333E-02
    5.2483      0.25242E-02
    5.2675      0.24193E-02
    5.2866      0.23184E-02
    5.3058      0.22214E-02
    5.3250      0.21281E-02
    5.3441      0.20385E-02
    5.3633      0.19523E-02
    5.3824      0.18695E-02
    5.4016      0.17900E-02
    5.4208      0.17136E-02
    5.4399      0.16402E-02
    5.4591      0.15698E-02
    5.4782      0.15021E-02
    5.4974      0.14372E-02
    5.5166      0.13742E-02
    5.5357      0.13072E-02
    5.5549      0.12433E-02
    5.5740      0.11822E-02
    5.5932      0.11239E-02
    5.6124      0.10673E-02
    5.6315      0.10120E-02
    5.6507      0.95938E-03
    5.6698      0.90928E-03
    5.6890      0.86159E-03
    5.7082      0.81621E-03
    5.7273      0.77304E-03
    5.7465      0.73199E-03
    5.7656      0.69296E-03
    5.7848      0.65586E-03
    5.8040      0.62060E-03
    5.8231      0.58710E-03
    5.8423      0.55528E-03
    5.8614      0.52507E-03
    5.8806      0.49638E-03
    5.8998      0.46914E-03
    5.9189      0.44330E-03
    5.9381      0.41878E-03
    5.9572      0.39552E-03
    5.9764      0.37347E-03
    5.9956      0.35257E-03
    6.0147      0.33276E-03
    6.0339      0.31399E-03
    6.0530      0.29621E-03
    6.0722      0.27937E-03
    6.0914      0.26343E-03
    6.1105      0.24834E-03
    6.1297      0.23405E-03
    6.1488      0.22054E-03
    6.1680      0.20775E-03
    6.1872      0.19580E-03
    6.2063      0.18452E-03
    6.2255      0.17384E-03
    6.2446      0.16375E-03
    6.2638      0.15420E-03
    6.2830      0.14518E-03
    6.3021      0.13666E-03
    6.3213      0.12861E-03
    6.3404      0.12100E-03
    6.3596      0.11382E-03
    6.3788      0.10704E-03
    6.3979      0.10064E-03
    6.4171      0.94604E-04
    6.4362      0.88908E-04
    6.4554      0.83537E-04
    6.4746      0.78471E-04
    6.4937      0.73694E-04
    6.5129      0.69193E-04
    6.5320      0.64951E-04
    6.5512      0.60955E-04
    6.5704      0.57192E-04
    6.5895      0.53649E-04
    6.6087      0.50315E-04
    6.6278      0.47177E-04
    6.6470      0.44224E-04
    6.6662      0.41446E-04
    6.6853      0.38834E-04
    6.7045      0.36378E-04
    6.7236      0.34069E-04
    6.7428      0.31899E-04
    6.7620      0.29861E-04
    6.7811      0.27946E-04
    6.8003      0.26148E-04
    6.8194      0.24460E-04
    6.8386      0.22876E-04
    6.8578      0.21389E-04
    6.8769      0.19995E-04
    6.8961      0.18687E-04
    6.9152      0.17693E-04
    6.9344      0.16906E-04
    6.9536      0.16153E-04
    6.9727      0.15433E-04
    6.9919      0.14743E-04
    7.0110      0.14084E-04
    7.0302      0.13557E-04
    7.0494      0.13081E-04
    7.0685      0.12621E-04
    7.0877      0.12177E-04
    7.1068      0.11749E-04
    7.1260      0.11336E-04
    7.1452      0.10937E-04
    7.1643      0.10552E-04
    7.1835      0.10180E-04
    7.2026      0.98212E-05
    7.2218      0.94750E-05
    7.2410      0.91407E-05
    7.2601      0.88182E-05
    7.2793      0.85068E-05
    7.2984      0.82064E-05
    7.3176      0.79164E-05
    7.3368      0.76365E-05
    7.3559      0.73664E-05
    7.3751      0.71058E-05
    7.3942      0.68542E-05
    7.4134      0.66115E-05
    7.4326      0.63772E-05
    7.4517      0.61512E-05
    7.4709      0.59330E-05
    7.4900      0.57225E-05
    7.5092      0.55195E-05
    7.5284      0.53235E-05
    7.5475      0.51344E-05
    7.5667      0.49520E-05
    7.5858      0.47759E-05
    7.6050      0.46061E-05
    7.6242      0.44422E-05
    7.6433      0.42841E-05
    7.6625      0.41315E-05
    7.6816      0.39843E-05
    7.7008      0.38423E-05
    7.7200      0.37053E-05
    7.7391      0.35731E-05
    7.7583      0.34456E-05
    7.7774      0.33226E-05
    7.7966      0.32039E-05
    7.8158      0.30895E-05
    7.8349      0.29790E-05
    7.8541      0.28725E-05
    7.8732      0.27697E-05
    7.8924      0.26706E-05
    7.9116      0.25750E-05
    7.9307      0.24828E-05
    7.9499      0.23938E-05
    7.9690      0.23080E-05
    7.9882      0.22252E-05
    8.0074      0.21454E-05
    8.0265      0.20684E-05
    8.0457      0.19942E-05
    8.0648      0.19226E-05
    8.0840      0.18535E-05
    8.1032      0.17869E-05
    8.1223      0.17230E-05
    8.1415      0.16614E-05
    8.1606      0.16020E-05
    8.1798      0.15446E-05
    8.1990      0.14894E-05
    8.2181      0.14360E-05
    8.2373      0.13850E-05
    8.2564      0.13460E-05
    8.2756      0.13081E-05
    8.2948      0.12713E-05
    8.3139      0.12355E-05
    8.3331      0.12007E-05
    8.3522      0.11669E-05
    8.3714      0.11341E-05
    8.3906      0.11022E-05
    8.4097      0.10712E-05
    8.4289      0.10410E-05
    8.4480      0.10118E-05
    8.4672      0.98333E-06
    8.4864      0.95570E-06
    8.5055      0.92885E-06
    8.5247      0.90276E-06
    8.5438      0.87740E-06
    8.5630      0.85276E-06
    8.5822      0.82882E-06
    8.6013      0.80555E-06
    8.6205      0.78294E-06
    8.6396      0.76097E-06
    8.6588      0.73963E-06
    8.6780      0.71888E-06
    8.6971      0.69872E-06
    8.7163      0.67913E-06
    8.7354      0.66009E-06
    8.7546      0.64159E-06
    8.7738      0.62361E-06
    8.7929      0.60614E-06
    8.8121      0.58916E-06
    8.8312      0.57267E-06
    8.8504      0.55663E-06
    8.8696      0.54105E-06
    8.8887      0.52590E-06
    8.9079      0.51119E-06
    8.9270      0.49689E-06
    8.9462      0.48299E-06
    8.9654      0.46948E-06
    8.9845      0.45635E-06
    9.0037      0.44359E-06
    9.0228      0.43120E-06
    9.0420      0.41914E-06
    9.0612      0.40743E-06
    9.0803      0.39605E-06
    9.0995      0.38499E-06
    9.1186      0.37424E-06
    9.1378      0.36378E-06
    9.1570      0.35363E-06
    9.1761      0.34376E-06
    9.1953      0.33417E-06
    9.2144      0.32484E-06
    9.2336      0.31578E-06
    9.2528      0.30697E-06
    9.2719      0.29841E-06
    9.2911      0.29009E-06
    9.3102      0.28201E-06
    9.3294      0.27415E-06
    9.3486      0.26651E-06
    9.3677      0.25908E-06
    9.3869      0.25187E-06
    9.4060      0.24485E-06
    9.4252      0.23804E-06
    9.4444      0.23141E-06
    9.4635      0.22497E-06
    9.4827      0.21871E-06
    9.5018      0.21262E-06
    9.5210      0.20671E-06
    9.5402      0.20096E-06
    9.5593      0.19537E-06
    9.5785      0.18993E-06
    9.5976      0.18465E-06
    9.6168      0.17952E-06
    9.6360      0.17453E-06
    9.6551      0.16968E-06
    9.6743      0.16497E-06
    9.6934      0.16038E-06
    9.7126      0.15593E-06
    9.7318      0.15160E-06
    9.7509      0.14739E-06
    9.7701      0.14330E-06
    9.7892      0.13932E-06
    9.8084      0.13546E-06
    9.8276      0.13177E-06
    9.8467      0.12926E-06
    9.8659      0.12679E-06
    9.8850      0.12438E-06
    9.9042      0.12201E-06
    9.9234      0.11969E-06
    9.9425      0.11741E-06
    9.9617      0.11518E-06
    9.9808      0.11300E-06
    10.000      0.11356E-06
10.020      0.11506E-06
    10.040      0.11657E-06
    10.060      0.11810E-06
    10.080      0.11965E-06
    10.100      0.12121E-06
    10.120      0.12279E-06
    10.140      0.12438E-06
    10.160      0.12599E-06
    10.180      0.12761E-06
    10.200      0.12925E-06
    10.220      0.13091E-06
    10.240      0.13258E-06
    10.260      0.13427E-06
    10.280      0.13598E-06
    10.300      0.13770E-06
    10.320      0.13944E-06
    10.340      0.14120E-06
    10.360      0.14298E-06
    10.380      0.14477E-06
    10.400      0.14658E-06
    10.420      0.14841E-06
    10.440      0.15026E-06
    10.460      0.15212E-06
    10.480      0.15400E-06
    10.500      0.15591E-06
    10.520      0.15783E-06
    10.540      0.15977E-06
    10.560      0.16172E-06
    10.580      0.16370E-06
    10.600      0.16570E-06
    10.620      0.16771E-06
    10.640      0.16974E-06
    10.660      0.17179E-06
    10.680      0.17386E-06
    10.700      0.17595E-06
    10.720      0.17805E-06
    10.740      0.18018E-06
    10.760      0.18232E-06
    10.780      0.18449E-06
    10.800      0.18668E-06
    10.820      0.18888E-06
    10.840      0.19111E-06
    10.860      0.19336E-06
    10.880      0.19563E-06
    10.900      0.19792E-06
    10.920      0.20023E-06
    10.940      0.20256E-06
    10.960      0.20491E-06
    10.980      0.20728E-06
    11.000      0.20968E-06
    11.020      0.21209E-06
    11.040      0.21453E-06
    11.060      0.21699E-06
    11.080      0.21947E-06
    11.100      0.22197E-06
    11.120      0.22450E-06
    11.140      0.22704E-06
    11.160      0.22961E-06
    11.180      0.23220E-06
    11.200      0.23482E-06
    11.220      0.23746E-06
    11.240      0.24012E-06
    11.260      0.24281E-06
    11.280      0.24552E-06
    11.300      0.24825E-06
    11.320      0.25101E-06
    11.340      0.25379E-06
    11.360      0.25659E-06
    11.380      0.25942E-06
    11.400      0.26227E-06
    11.420      0.26514E-06
    11.440      0.26804E-06
    11.460      0.27096E-06
    11.480      0.27391E-06
    11.500      0.27688E-06
    11.520      0.27988E-06
    11.540      0.28290E-06
    11.560      0.28594E-06
    11.580      0.28901E-06
    11.600      0.29210E-06
    11.620      0.29522E-06
    11.640      0.29837E-06
    11.660      0.30154E-06
    11.680      0.30474E-06
    11.700      0.30796E-06
    11.720      0.31121E-06
    11.740      0.31449E-06
    11.760      0.31779E-06
    11.780      0.32113E-06
    11.800      0.32449E-06
    11.820      0.32787E-06
    11.840      0.33129E-06
    11.860      0.33473E-06
    11.880      0.33820E-06
    11.900      0.34169E-06
    11.920      0.34566E-06
    11.940      0.35044E-06
    11.960      0.35529E-06
    11.980      0.36018E-06
    12.000      0.36513E-06
    12.020      0.37013E-06
    12.040      0.37520E-06
    12.060      0.38032E-06
    12.080      0.38549E-06
    12.100      0.39072E-06
    12.120      0.39640E-06
    12.140      0.40231E-06
    12.160      0.40830E-06
    12.180      0.41435E-06
    12.200      0.42048E-06
    12.220      0.42669E-06
    12.240      0.43296E-06
    12.260      0.43932E-06
    12.280      0.44574E-06
    12.300      0.45225E-06
    12.320      0.45883E-06
    12.340      0.46549E-06
    12.360      0.47223E-06
    12.380      0.47905E-06
    12.400      0.48595E-06
    12.420      0.49293E-06
    12.440      0.49999E-06
    12.460      0.50714E-06
    12.480      0.51437E-06
    12.500      0.52168E-06
    12.520      0.52908E-06
    12.540      0.53656E-06
    12.560      0.54413E-06
    12.580      0.55179E-06
    12.600      0.55953E-06
    12.620      0.56736E-06
    12.640      0.57529E-06
    12.660      0.58329E-06
    12.680      0.59140E-06
    12.700      0.59959E-06
    12.720      0.60788E-06
    12.740      0.61626E-06
    12.760      0.62472E-06
    12.780      0.63329E-06
    12.800      0.64195E-06
    12.820      0.65071E-06
    12.840      0.65957E-06
    12.860      0.66852E-06
    12.880      0.67757E-06
    12.900      0.68672E-06
    12.920      0.69597E-06
    12.940      0.70533E-06
    12.960      0.71478E-06
    12.980      0.72434E-06
    13.000      0.73400E-06
    13.020      0.74377E-06
    13.040      0.75364E-06
    13.060      0.76362E-06
    13.080      0.77371E-06
    13.100      0.78390E-06
    13.120      0.79420E-06
    13.140      0.80461E-06
    13.160      0.81513E-06
    13.180      0.82576E-06
    13.200      0.83651E-06
    13.220      0.84737E-06
    13.240      0.85834E-06
    13.260      0.86943E-06
    13.280      0.88064E-06
    13.300      0.89196E-06
    13.320      0.90339E-06
    13.340      0.91495E-06
    13.360      0.92662E-06
    13.380      0.93842E-06
    13.400      0.95034E-06
    13.420      0.96238E-06
    13.440      0.97454E-06
    13.460      0.98683E-06
    13.480      0.99925E-06
    13.500      0.10118E-05
    13.520      0.10244E-05
    13.540      0.10372E-05
    13.560      0.10502E-05
    13.580      0.10632E-05
    13.600      0.10764E-05
    13.620      0.10897E-05
    13.640      0.11032E-05
    13.660      0.11167E-05
    13.680      0.11305E-05
    13.700      0.11443E-05
    13.720      0.11583E-05
